# D(r) from X-rays diffraction
  0.023358           -16.2867861264
  0.070073           -48.8603583793
  0.116788           -81.4339306321
  0.163504          -114.0075028850
  0.210219          -146.5810751378
  0.256934          -179.1546473907
  0.303650          -211.7282196435
  0.350365          -244.3017918964
  0.397081          -276.8753641492
  0.443796          -309.4489364021
  0.490511          -342.0225086550
  0.537227          -374.5960809078
  0.583942          -407.1696531607
  0.630657          -439.7432254135
  0.677373          -472.3167976664
  0.724088          -504.8903699192
  0.770803          -537.4639421721
  0.817519          -570.0375144249
  0.864234          -602.6110866778
  0.910950          -635.1846589306
  0.957665          -667.7582311835
  1.004380          -700.3318034363
  1.051096          -732.9053756892
  1.097811          -765.4789479420
  1.144526          -798.0525201949
  1.191242          -830.6260924477
  1.237957          -863.1996647006
  1.284672          -895.7732369535
  1.331388          -928.3468092063
  1.378103          -960.9203814592
  1.424819          -993.4939537120
  1.471534         -1026.0675259649
  1.518249         -1058.6410982177
  1.564965         -1091.2146704706
  1.611680         -1123.7882427234
  1.658395         -1156.3618149763
  1.705111         -1188.9353872291
  1.751826         -1221.5089594820
  1.798541         -1254.0825317348
  1.845257         -1286.6561039877
  1.891972         -1319.2296762405
  1.938688         -1351.8032484934
  1.985403         -1384.3768207462
  2.032118         -1416.9503929991
  2.078834         -1449.5239652519
  2.125549         -1482.0975375048
  2.172264         -1514.6711097577
  2.218980         -1547.2446820105
  2.265695         -1579.8182542634
  2.312410         -1612.3918265162
  2.359126         -1644.9653987691
  2.405841         -1677.5389710219
  2.452557         -1565.9619641534
  2.499272          -469.5791081236
  2.545987           307.6545935132
  2.592703          2964.7348747922
  2.639418          4321.0991162380
  2.686133          4312.9907762818
  2.732849          4562.7792978372
  2.779564          4039.9217863284
  2.826279          3283.0906204131
  2.872995          3903.4316254745
  2.919710          2807.6543033037
  2.966426          1745.3622547326
  3.013141           714.9981231643
  3.059856           639.4339662930
  3.106572          -231.4680098648
  3.153287          -180.5839146761
  3.200002           -21.6547187964
  3.246718           567.3323378259
  3.293433            65.2108323330
  3.340148          -423.7769152984
  3.386864          -482.6287312423
  3.433579         -1158.5628711864
  3.480294          -293.4635852495
  3.527010          -955.7238622662
  3.573725          -216.5239200918
  3.620441          -962.0200122437
  3.667156           142.3999586452
  3.713871           -19.3231503655
  3.760587         -1211.9793565734
  3.807302            38.1758088308
  3.854017         -1036.1106445606
  3.900733           633.6111374720
  3.947448          -602.9626977686
  3.994163          -749.1912735743
  4.040879            69.6189196404
  4.087594          -514.9030040564
  4.134310          -744.8928698098
  4.181025          -378.5563430166
  4.227740          -606.4099250712
  4.274456           162.5371295684
  4.321171          -231.2818422063
  4.367886          -698.3156352087
  4.414602          -995.9840233905
  4.461317          -654.1267577845
  4.508032          -869.0084976344
  4.554748          -614.4233997172
  4.601463          -826.6679779709
  4.648179          -731.0571036445
  4.694894         -1541.6474862419
  4.741609          -845.6618308400
  4.788325           -90.0568712102
  4.835040          -665.8691958816
  4.881755          -434.6451432026
  4.928471          -710.5692475503
  4.975186          -342.3675213727
  5.021901          -263.2249386283
  5.068617           162.6178621401
  5.115332           234.5133711903
  5.162048           578.4757986627
  5.208763           236.9324218076
  5.255478          1179.0471268706
  5.302194           837.0827872823
  5.348909           764.9098670582
  5.395624          1021.0454480478
  5.442340          1661.9974651499
  5.489055          2484.7131439549
  5.535770           482.9014982978
  5.582486          1047.2993201187
  5.629201          1538.9832811021
  5.675917           963.1276616913
  5.722632          1569.9683934608
  5.769347          1798.7737227091
  5.816063           564.4706400504
  5.862778           253.8715061154
  5.909493           127.1484933461
  5.956209          1248.4121501745
  6.002924           525.9510752140
  6.049639          1099.8443337019
  6.096355          -945.2455134289
  6.143070          -197.2274908869
  6.189785           424.7726815626
  6.236501           -40.1411026437
  6.283216           401.6682486260
  6.329932          -671.5589597622
  6.376647          -786.9913367697
  6.423362         -1066.3407077470
  6.470078          -467.8332668894
  6.516793         -1451.6706558795
  6.563508          -859.8676394053
  6.610224          -583.4789426300
  6.656939          -457.2289998512
  6.703654          -980.1926121639
  6.750370          -734.3400166107
  6.797085          -934.4582009852
  6.843801          -736.0879409249
  6.890516          -472.0228576742
  6.937231         -1269.0667733104
  6.983947          -821.7448554984
  7.030662          -788.6378871795
  7.077377          -503.7206838082
  7.124093          -461.9852053347
  7.170808           744.0021073286
  7.217523          -830.3958934801
  7.264239           681.2537949589
  7.310954          -880.5105693960
  7.357670          -143.2370120420
  7.404385           340.5180714629
  7.451100           -90.7720950227
  7.497816           855.0005550702
  7.544531           419.4086732189
  7.591246          -108.6667845625
  7.637962           899.0997167346
  7.684677          1394.4368433254
  7.731392           370.5990713267
  7.778108          1459.4059293734
  7.824823          2174.5402457257
  7.871539          -111.5242693319
  7.918254          1402.2260976915
  7.964969            -9.2467770316
  8.011685          1305.3446268130
  8.058400          1160.2216358419
  8.105115          2184.7047910789
  8.151831          -354.6373765655
  8.198546          -448.3248501130
  8.245261          -226.8430700404
  8.291977          -427.7550638626
  8.338692          -863.7084114199
  8.385408           531.0288753828
  8.432123          1058.9765316754
  8.478838          -600.1053631834
  8.525554          1206.7388248757
  8.572269           234.4615276628
  8.618984         -1079.7265356396
  8.665700           493.7158535896
  8.712415          -612.5525209604
  8.759130            37.5178039273
  8.805846           585.2343815648
  8.852561          -822.2016148995
  8.899277          -957.2944729650
  8.945992         -1469.1477918803
  8.992707          1825.2482821536
  9.039423         -1631.7014644154
  9.086138           746.8460470104
  9.132853             2.4986911971
  9.179569          -348.7613012033
  9.226284          -226.3372616385
  9.272999         -1469.1466526517
  9.319715         -2304.4336759660
